# Device: RIGOL TECHNOLOGIES,MSO5074,MS5A233905324,00.01.03.03.00
# Channel: CHAN1
# Timebase: 5.000000E-3 s/div
# Scale: 1E1 V/div
# Offset: 0 V
# Trigger: TD
# Timestamp: 2025-07-14T19-02-45
Time (s),Voltage (V)
-0.025,-13.15845
-0.02495,-11.6964
-0.024900000000000002,-13.6458
-0.02485,-11.6964
-0.024800000000000003,-11.20905
-0.02475,-13.6458
-0.0247,-13.15845
-0.024650000000000002,-11.20905
-0.0246,-11.20905
-0.024550000000000002,-13.15845
-0.0245,-12.671100000000001
-0.024450000000000003,-10.7217
-0.0244,-10.234350000000001
-0.02435,-12.671100000000001
-0.024300000000000002,-12.18375
-0.02425,-9.747
-0.024200000000000003,-10.234350000000001
-0.02415,-12.18375
-0.0241,-12.18375
-0.024050000000000002,-9.747
-0.024,-11.6964
-0.023950000000000003,-9.747
-0.0239,-11.6964
-0.023850000000000003,-9.25965
-0.0238,-11.20905
-0.02375,-9.25965
-0.023700000000000002,-11.20905
-0.02365,-9.25965
-0.023600000000000003,-9.25965
-0.02355,-11.20905
-0.0235,-10.7217
-0.023450000000000002,-8.7723
-0.0234,-10.7217
-0.023350000000000003,-8.28495
-0.0233,-10.234350000000001
-0.02325,-8.28495
-0.023200000000000002,-8.28495
-0.02315,-10.234350000000001
-0.023100000000000002,-8.28495
-0.02305,-10.234350000000001
-0.023,-10.234350000000001
-0.02295,-7.7976
-0.0229,-10.234350000000001
-0.022850000000000002,-7.7976
-0.0228,-7.7976
-0.02275,-10.234350000000001
-0.0227,-9.747
-0.02265,-7.7976
-0.022600000000000002,-9.25965
-0.02255,-6.8229
-0.022500000000000003,-9.25965
-0.02245,-7.31025
-0.0224,-8.7723
-0.022350000000000002,-6.8229
-0.0223,-8.28495
-0.022250000000000002,-6.3355500000000005
-0.0222,-6.3355500000000005
-0.022150000000000003,-8.28495
-0.0221,-7.7976
-0.02205,-5.8482
-0.022000000000000002,-5.8482
-0.02195,-7.7976
-0.021900000000000003,-5.36085
-0.02185,-7.7976
-0.0218,-5.36085
-0.021750000000000002,-7.7976
-0.0217,-5.36085
-0.021650000000000003,-7.31025
-0.0216,-7.31025
-0.02155,-5.36085
-0.021500000000000002,-7.31025
-0.02145,-4.8735
-0.021400000000000002,-7.31025
-0.02135,-5.36085
-0.0213,-6.8229
-0.02125,-4.8735
-0.0212,-6.8229
-0.021150000000000002,-4.38615
-0.0211,-4.38615
-0.02105,-6.8229
-0.021,-6.3355500000000005
-0.020950000000000003,-3.8988
-0.020900000000000002,-5.8482
-0.02085,-3.41145
-0.0208,-3.8988
-0.02075,-5.8482
-0.020700000000000003,-5.36085
-0.02065,-3.41145
-0.0206,-5.36085
-0.020550000000000002,-2.9241
-0.0205,-5.36085
-0.020450000000000003,-2.9241
-0.0204,-4.8735
-0.02035,-2.9241
-0.020300000000000002,-4.8735
-0.02025,-2.9241
-0.020200000000000003,-2.43675
-0.02015,-4.8735
-0.0201,-4.38615
-0.020050000000000002,-2.43675
-0.02,-10.234350000000001
-0.019950000000000002,0.0
-0.0199,-3.8988
-0.01985,-0.9747
-0.0198,-2.9241
-0.01975,-0.48735
-0.019700000000000002,-1.9494
-0.01965,0.9747
-0.0196,-0.48735
-0.01955,3.41145
-0.0195,1.46205
-0.019450000000000002,5.8482
-0.0194,4.8735
-0.01935,9.747
-0.0193,7.7976
-0.019250000000000003,13.6458
-0.019200000000000002,12.18375
-0.01915,17.05725
-0.019100000000000002,15.5952
-0.01905,18.031950000000002
-0.019000000000000003,15.5952
-0.01895,18.031950000000002
-0.0189,16.08255
-0.018850000000000002,18.031950000000002
-0.0188,16.08255
-0.018750000000000003,18.031950000000002
-0.0187,16.5699
-0.01865,18.5193
-0.018600000000000002,18.5193
-0.01855,16.08255
-0.018500000000000003,18.031950000000002
-0.01845,16.08255
-0.0184,18.031950000000002
-0.01835,15.5952
-0.0183,15.5952
-0.018250000000000002,17.5446
-0.0182,17.5446
-0.01815,15.107850000000001
-0.0181,15.107850000000001
-0.01805,17.5446
-0.018000000000000002,17.05725
-0.01795,14.6205
-0.0179,17.05725
-0.01785,14.6205
-0.0178,17.05725
-0.017750000000000002,14.6205
-0.0177,14.6205
-0.01765,17.05725
-0.0176,16.5699
-0.017550000000000003,14.6205
-0.0175,16.5699
-0.01745,14.6205
-0.017400000000000002,16.5699
-0.01735,14.6205
-0.017300000000000003,16.5699
-0.01725,14.13315
-0.0172,14.6205
-0.01715,16.5699
-0.0171,16.5699
-0.017050000000000003,14.13315
-0.017,14.13315
-0.01695,16.5699
-0.016900000000000002,16.08255
-0.01685,13.6458
-0.016800000000000002,16.08255
-0.01675,13.6458
-0.0167,16.08255
-0.01665,13.6458
-0.0166,15.5952
-0.016550000000000002,13.6458
-0.0165,13.15845
-0.01645,15.5952
-0.0164,15.107850000000001
-0.016350000000000003,13.15845
-0.016300000000000002,13.15845
-0.01625,15.5952
-0.0162,15.5952
-0.01615,13.15845
-0.016100000000000003,13.6458
-0.016050000000000002,15.5952
-0.016,15.5952
-0.01595,13.15845
-0.0159,15.5952
-0.015850000000000003,13.15845
-0.0158,14.6205
-0.01575,12.671100000000001
-0.0157,12.671100000000001
-0.01565,15.5952
-0.015600000000000001,14.13315
-0.015550000000000001,12.18375
-0.015500000000000002,14.13315
-0.01545,12.18375
-0.0154,14.13315
-0.01535,11.6964
-0.015300000000000001,13.6458
-0.015250000000000001,11.6964
-0.015200000000000002,11.6964
-0.01515,13.6458
-0.0151,11.6964
-0.015050000000000001,13.6458
-0.015000000000000001,13.6458
-0.014950000000000001,11.20905
-0.0149,13.6458
-0.01485,10.7217
-0.0148,12.671100000000001
-0.014750000000000001,10.7217
-0.014700000000000001,12.671100000000001
-0.014650000000000002,10.7217
-0.0146,12.18375
-0.01455,10.234350000000001
-0.0145,12.18375
-0.014450000000000001,9.747
-0.014400000000000001,11.6964
-0.014350000000000002,9.747
-0.0143,11.6964
-0.01425,9.25965
-0.0142,9.25965
-0.014150000000000001,11.6964
-0.014100000000000001,11.20905
-0.014050000000000002,9.25965
-0.014,11.20905
-0.01395,8.7723
-0.013900000000000001,11.20905
-0.013850000000000001,8.7723
-0.013800000000000002,10.7217
-0.01375,8.7723
-0.0137,8.7723
-0.01365,10.7217
-0.013600000000000001,10.7217
-0.013550000000000001,7.7976
-0.013500000000000002,8.28495
-0.01345,10.234350000000001
-0.0134,9.747
-0.01335,7.7976
-0.013300000000000001,9.747
-0.013250000000000001,7.7976
-0.013200000000000002,7.31025
-0.01315,9.747
-0.0131,9.25965
-0.01305,7.7976
-0.013000000000000001,9.25965
-0.012950000000000001,7.31025
-0.0129,9.25965
-0.01285,7.31025
-0.0128,9.25965
-0.012750000000000001,7.31025
-0.012700000000000001,7.31025
-0.012650000000000002,9.25965
-0.0126,8.7723
-0.01255,6.8229
-0.0125,8.28495
-0.012450000000000001,6.3355500000000005
-0.012400000000000001,7.7976
-0.012350000000000002,6.3355500000000005
-0.0123,7.7976
-0.01225,5.36085
-0.0122,5.36085
-0.012150000000000001,7.7976
-0.012100000000000001,7.31025
-0.01205,5.36085
-0.012,7.31025
-0.01195,4.8735
-0.0119,7.31025
-0.011850000000000001,4.8735
-0.011800000000000001,4.8735
-0.01175,6.8229
-0.0117,4.8735
-0.01165,6.8229
-0.011600000000000001,4.8735
-0.011550000000000001,6.8229
-0.011500000000000002,6.8229
-0.01145,4.8735
-0.0114,6.3355500000000005
-0.01135,4.38615
-0.011300000000000001,6.3355500000000005
-0.011250000000000001,4.38615
-0.0112,6.3355500000000005
-0.01115,3.8988
-0.0111,5.8482
-0.01105,3.8988
-0.011000000000000001,5.36085
-0.010950000000000001,3.41145
-0.0109,5.36085
-0.01085,3.41145
-0.0108,5.36085
-0.010750000000000001,2.9241
-0.010700000000000001,4.8735
-0.010650000000000001,2.9241
-0.0106,2.9241
-0.01055,4.8735
-0.0105,4.38615
-0.010450000000000001,2.43675
-0.010400000000000001,4.38615
-0.01035,2.43675
-0.0103,4.38615
-0.01025,2.43675
-0.0102,3.8988
-0.010150000000000001,1.9494
-0.010100000000000001,3.8988
-0.01005,1.9494
-0.01,8.28495
-0.00995,0.0
-0.0099,2.9241
-0.009850000000000001,0.9747
-0.009800000000000001,2.43675
-0.00975,0.0
-0.0097,1.46205
-0.00965,-1.9494
-0.009600000000000001,-0.48735
-0.009550000000000001,-3.8988
-0.009500000000000001,-2.43675
-0.00945,-6.8229
-0.0094,-5.36085
-0.00935,-10.234350000000001
-0.0093,-9.25965
-0.009250000000000001,-14.13315
-0.0092,-13.15845
-0.009150000000000002,-17.5446
-0.0091,-16.08255
-0.009049999999999999,-19.00665
-0.009000000000000001,-18.5193
-0.00895,-16.08255
-0.008900000000000002,-16.08255
-0.00885,-18.5193
-0.008800000000000002,-16.5699
-0.00875,-18.5193
-0.0087,-16.5699
-0.008650000000000001,-19.494
-0.0086,-17.05725
-0.008550000000000002,-19.00665
-0.0085,-18.5193
-0.00845,-16.08255
-0.008400000000000001,-18.031950000000002
-0.00835,-16.08255
-0.008300000000000002,-18.031950000000002
-0.00825,-15.5952
-0.008199999999999999,-18.031950000000002
-0.008150000000000001,-15.5952
-0.0081,-17.5446
-0.008050000000000002,-15.5952
-0.008,-17.05725
-0.007950000000000002,-15.107850000000001
-0.0079,-15.107850000000001
-0.00785,-17.5446
-0.007800000000000001,-17.05725
-0.00775,-15.107850000000001
-0.007700000000000002,-17.05725
-0.0076500000000000005,-15.107850000000001
-0.007599999999999999,-17.05725
-0.007550000000000001,-15.107850000000001
-0.0075,-17.05725
-0.007450000000000002,-14.6205
-0.0074,-15.107850000000001
-0.007349999999999999,-17.5446
-0.007300000000000001,-14.6205
-0.0072499999999999995,-17.05725
-0.0072000000000000015,-14.6205
-0.00715,-17.05725
-0.007100000000000002,-17.05725
-0.007050000000000001,-14.6205
-0.006999999999999999,-16.5699
-0.006950000000000001,-14.6205
-0.0069,-14.6205
-0.006850000000000002,-16.5699
-0.0068000000000000005,-16.5699
-0.006749999999999999,-14.13315
-0.006700000000000001,-16.08255
-0.00665,-14.13315
-0.006600000000000002,-16.08255
-0.00655,-14.13315
-0.006499999999999999,-15.5952
-0.006450000000000001,-13.6458
-0.0063999999999999994,-15.5952
-0.0063500000000000015,-13.6458
-0.0063,-15.5952
-0.006250000000000002,-13.6458
-0.006200000000000001,-13.6458
-0.006149999999999999,-16.08255
-0.006100000000000001,-14.13315
-0.00605,-16.08255
-0.006000000000000002,-14.13315
-0.00595,-16.08255
-0.005899999999999999,-13.6458
-0.005850000000000001,-15.5952
-0.0058,-15.107850000000001
-0.005750000000000002,-13.15845
-0.0057,-15.107850000000001
-0.005649999999999999,-13.15845
-0.005600000000000001,-14.6205
-0.005549999999999999,-12.671100000000001
-0.005500000000000001,-14.6205
-0.00545,-12.671100000000001
-0.005400000000000002,-14.6205
-0.005350000000000001,-12.671100000000001
-0.005299999999999999,-14.13315
-0.005250000000000001,-12.18375
-0.0052,-12.18375
-0.005150000000000002,-14.13315
-0.0051,-12.18375
-0.005049999999999999,-14.13315
-0.005000000000000001,-14.13315
-0.0049499999999999995,-11.6964
-0.004900000000000002,-13.6458
-0.00485,-11.6964
-0.004799999999999999,-13.15845
-0.004750000000000001,-11.6964
-0.004699999999999999,-13.15845
-0.004650000000000001,-11.20905
-0.0046,-10.7217
-0.004550000000000002,-13.15845
-0.0045000000000000005,-12.671100000000001
-0.004449999999999999,-10.7217
-0.004400000000000001,-12.18375
-0.00435,-10.234350000000001
-0.004300000000000002,-10.234350000000001
-0.00425,-12.18375
-0.004199999999999999,-12.18375
-0.004150000000000001,-9.747
-0.0040999999999999995,-9.747
-0.0040500000000000015,-12.18375
-0.004,-9.747
-0.003949999999999999,-11.6964
-0.0039000000000000007,-11.6964
-0.0038499999999999993,-9.747
-0.0038000000000000013,-11.20905
-0.00375,-9.25965
-0.003700000000000002,-11.20905
-0.0036500000000000005,-9.25965
-0.003599999999999999,-11.20905
-0.003550000000000001,-9.25965
-0.0034999999999999996,-8.7723
-0.0034500000000000017,-11.20905
-0.0034000000000000002,-10.7217
-0.003349999999999999,-8.28495
-0.003300000000000001,-10.234350000000001
-0.0032499999999999994,-8.28495
-0.0032000000000000015,-10.234350000000001
-0.00315,-8.28495
-0.003100000000000002,-8.28495
-0.0030500000000000006,-10.234350000000001
-0.002999999999999999,-8.28495
-0.0029500000000000012,-10.234350000000001
-0.0029,-9.747
-0.002850000000000002,-8.28495
-0.0028000000000000004,-9.747
-0.002749999999999999,-7.7976
-0.002700000000000001,-7.7976
-0.0026499999999999996,-9.747
-0.0026000000000000016,-7.7976
-0.00255,-9.747
-0.0024999999999999988,-9.25965
-0.002450000000000001,-6.8229
-0.0023999999999999994,-8.7723
-0.0023500000000000014,-6.3355500000000005
-0.0023,-8.28495
-0.002250000000000002,-6.3355500000000005
-0.0022000000000000006,-8.28495
-0.002149999999999999,-5.8482
-0.002100000000000001,-5.8482
-0.0020499999999999997,-8.28495
-0.0020000000000000018,-5.8482
-0.0019500000000000003,-7.7976
-0.001899999999999999,-7.31025
-0.001850000000000001,-5.36085
-0.0017999999999999995,-7.31025
-0.0017500000000000016,-5.36085
-0.0017000000000000001,-7.31025
-0.0016499999999999987,-5.36085
-0.0016000000000000007,-7.31025
-0.0015499999999999993,-5.36085
-0.0015000000000000013,-5.36085
-0.00145,-7.31025
-0.001400000000000002,-7.31025
-0.0013500000000000005,-4.8735
-0.001299999999999999,-6.8229
-0.0012500000000000011,-4.38615
-0.0011999999999999997,-6.8229
-0.0011500000000000017,-3.8988
-0.0011000000000000003,-6.3355500000000005
-0.0010499999999999989,-3.8988
-0.0010000000000000009,-5.8482
-0.0009499999999999995,-3.8988
-0.0009000000000000015,-3.8988
-0.0008500000000000001,-5.8482
-0.0007999999999999986,-5.8482
-0.0007500000000000007,-3.41145
-0.0006999999999999992,-5.36085
-0.0006500000000000013,-3.41145
-0.0005999999999999998,-3.41145
-0.0005500000000000019,-5.36085
-0.0005000000000000004,-4.8735
-0.000449999999999999,-2.9241
-0.00040000000000000105,-2.9241
-0.0003499999999999996,-4.8735
-0.00030000000000000165,-4.8735
-0.0002500000000000002,-2.43675
-0.0001999999999999988,-4.38615
-0.00015000000000000083,-1.9494
-9.99999999999994e-05,-8.7723
-5.000000000000143e-05,-0.48735
0.0,-1.46205
5.000000000000143e-05,-5.8482
9.99999999999994e-05,-3.41145
0.00015000000000000083,-0.9747
0.0001999999999999988,-2.9241
0.0002500000000000002,-0.48735
0.0002999999999999982,-2.43675
0.0003499999999999996,1.46205
0.00040000000000000105,0.0
0.000449999999999999,3.41145
0.0005000000000000004,1.9494
0.0005499999999999984,6.8229
0.0005999999999999998,4.8735
0.0006500000000000013,10.234350000000001
0.0006999999999999992,8.7723
0.0007500000000000007,14.13315
0.0007999999999999986,13.15845
0.0008500000000000001,18.031950000000002
0.0009000000000000015,16.08255
0.0009499999999999995,18.031950000000002
0.0010000000000000009,16.08255
0.0010499999999999989,18.5193
0.0011000000000000003,16.08255
0.0011499999999999982,18.031950000000002
0.0011999999999999997,16.5699
0.0012500000000000011,18.5193
0.001299999999999999,18.5193
0.0013500000000000005,16.08255
0.0013999999999999985,18.5193
0.00145,16.5699
0.0015000000000000013,18.031950000000002
0.0015499999999999993,16.08255
0.0016000000000000007,16.08255
0.0016499999999999987,18.031950000000002
0.0017000000000000001,18.031950000000002
0.0017500000000000016,15.5952
0.0017999999999999995,17.5446
0.001850000000000001,15.107850000000001
0.001899999999999999,17.05725
0.0019500000000000003,15.107850000000001
0.0019999999999999983,17.05725
0.0020499999999999997,14.6205
0.002100000000000001,17.05725
0.002149999999999999,14.6205
0.0022000000000000006,16.5699
0.0022499999999999985,14.6205
0.0023,14.6205
0.0023500000000000014,17.05725
0.0023999999999999994,14.6205
0.002450000000000001,17.05725
0.0024999999999999988,16.5699
0.00255,14.13315
0.0026000000000000016,16.5699
0.0026499999999999996,14.6205
0.002700000000000001,14.6205
0.002749999999999999,17.05725
0.0028000000000000004,16.5699
0.0028499999999999984,14.6205
0.0029,16.5699
0.0029500000000000012,14.13315
0.002999999999999999,16.5699
0.0030500000000000006,13.6458
0.0030999999999999986,16.08255
0.00315,14.13315
0.0032000000000000015,16.08255
0.0032499999999999994,13.6458
0.003300000000000001,15.5952
0.003349999999999999,13.6458
0.0034000000000000002,16.08255
0.0034500000000000017,13.6458
0.0034999999999999996,15.5952
0.003550000000000001,13.6458
0.003599999999999999,13.6458
0.0036500000000000005,16.08255
0.0036999999999999984,13.6458
0.00375,15.5952
0.0038000000000000013,13.6458
0.0038499999999999993,16.08255
0.0039000000000000007,13.6458
0.003949999999999999,15.5952
0.004,16.08255
0.0040500000000000015,13.15845
0.0040999999999999995,15.5952
0.004150000000000001,13.15845
0.004199999999999999,15.107850000000001
0.00425,13.15845
0.004300000000000002,14.6205
0.00435,12.671100000000001
0.004400000000000001,14.6205
0.004449999999999999,12.18375
0.0045000000000000005,12.671100000000001
0.0045499999999999985,14.6205
0.0046,14.13315
0.004650000000000001,12.18375
0.004699999999999999,13.6458
0.004750000000000001,11.6964
0.004799999999999999,13.6458
0.00485,11.6964
0.004900000000000002,13.6458
0.0049499999999999995,11.6964
0.005000000000000001,11.6964
0.005049999999999999,13.6458
0.0051,13.15845
0.005149999999999998,11.20905
0.0052,13.15845
0.005250000000000001,11.20905
0.005299999999999999,12.671100000000001
0.005350000000000001,10.7217
0.0053999999999999986,12.671100000000001
0.00545,10.234350000000001
0.005500000000000001,12.18375
0.005549999999999999,10.234350000000001
0.005600000000000001,11.6964
0.005649999999999999,9.747
0.0057,9.747
0.005750000000000002,11.6964
0.0058,9.747
0.005850000000000001,11.6964
0.005899999999999999,11.20905
0.00595,9.25965
0.005999999999999998,9.25965
0.00605,11.6964
0.006100000000000001,11.20905
0.006149999999999999,8.7723
0.006200000000000001,9.25965
0.006249999999999999,11.20905
0.0063,8.7723
0.0063500000000000015,11.20905
0.006400000000000003,8.7723
0.006449999999999997,11.20905
0.006499999999999999,10.7217
0.00655,8.28495
0.006600000000000002,8.28495
0.006650000000000003,10.234350000000001
0.006699999999999998,8.28495
0.006749999999999999,10.234350000000001
0.0068000000000000005,9.747
0.006850000000000002,7.7976
0.006900000000000003,9.747
0.006949999999999998,7.7976
0.006999999999999999,7.7976
0.007050000000000001,9.747
0.007100000000000002,7.31025
0.007150000000000004,9.747
0.007199999999999998,9.747
0.0072499999999999995,7.31025
0.007300000000000001,9.25965
0.007350000000000002,7.31025
0.007399999999999997,9.25965
0.007449999999999998,6.8229
0.0075,8.7723
0.007550000000000001,6.8229
0.007600000000000003,8.28495
0.007649999999999997,6.3355500000000005
0.0076999999999999985,7.7976
0.00775,5.8482
0.007800000000000001,5.8482
0.007850000000000003,7.7976
0.007899999999999997,7.31025
0.007949999999999999,5.36085
0.008,4.8735
0.008050000000000002,7.31025
0.008100000000000003,4.8735
0.008149999999999998,7.31025
0.008199999999999999,5.36085
0.00825,6.8229
0.008300000000000002,4.8735
0.008350000000000003,7.31025
0.008399999999999998,5.36085
0.00845,7.31025
0.0085,6.8229
0.008550000000000002,4.8735
0.008600000000000003,6.8229
0.008649999999999998,4.8735
0.0087,6.8229
0.00875,4.38615
0.008800000000000002,6.3355500000000005
0.008850000000000004,3.8988
0.008899999999999998,5.8482
0.00895,3.8988
0.009000000000000001,5.8482
0.009050000000000002,3.8988
0.009099999999999997,5.36085
0.009149999999999998,3.41145
0.0092,3.41145
0.009250000000000001,5.36085
0.009300000000000003,4.8735
0.009349999999999997,2.9241
0.009399999999999999,2.9241
0.00945,4.8735
0.009500000000000001,2.9241
0.009550000000000003,4.8735
0.009599999999999997,2.43675
0.009649999999999999,4.8735
0.0097,4.38615
0.009750000000000002,2.43675
0.009800000000000003,3.8988
0.009849999999999998,2.43675
0.009899999999999999,9.25965
0.00995,0.48735
0.010000000000000002,3.8988
0.010050000000000003,1.46205
0.010099999999999998,2.9241
0.01015,0.9747
0.0102,2.43675
0.010250000000000002,0.0
0.010300000000000004,1.46205
0.010349999999999998,-1.46205
0.0104,0.0
0.010450000000000001,-3.8988
0.010500000000000002,-2.43675
0.010549999999999997,-6.8229
0.010599999999999998,-5.8482
0.01065,-10.7217
0.010700000000000001,-9.25965
0.010750000000000003,-14.6205
0.010799999999999997,-13.15845
0.010849999999999999,-18.031950000000002
0.0109,-16.08255
0.010950000000000001,-18.5193
0.011000000000000003,-18.031950000000002
0.011049999999999997,-16.08255
0.011099999999999999,-16.08255
0.01115,-18.031950000000002
0.011200000000000002,-16.08255
0.011250000000000003,-19.00665
0.011299999999999998,-16.5699
0.011349999999999999,-18.5193
0.0114,-18.5193
0.011450000000000002,-16.5699
0.011500000000000003,-16.08255
0.011549999999999998,-18.5193
0.0116,-18.031950000000002
0.01165,-15.5952
0.011700000000000002,-18.031950000000002
0.011750000000000003,-15.5952
0.011799999999999998,-17.5446
0.01185,-15.5952
0.0119,-17.05725
0.011950000000000002,-15.107850000000001
0.012000000000000004,-15.107850000000001
0.012049999999999998,-17.05725
0.0121,-15.107850000000001
0.012150000000000001,-17.05725
0.012200000000000003,-15.107850000000001
0.012249999999999997,-17.05725
0.012299999999999998,-16.5699
0.01235,-14.6205
0.012400000000000001,-14.6205
0.012450000000000003,-17.05725
0.012499999999999997,-16.5699
0.012549999999999999,-14.6205
0.0126,-17.05725
0.012650000000000002,-14.13315
0.012700000000000003,-16.5699
0.012749999999999997,-14.6205
0.012799999999999999,-16.5699
0.01285,-14.6205
0.012900000000000002,-16.5699
0.012950000000000003,-14.6205
0.012999999999999998,-16.08255
0.013049999999999999,-14.13315
0.0131,-16.08255
0.013150000000000002,-14.13315
0.013200000000000003,-14.13315
0.013249999999999998,-16.08255
0.0133,-13.6458
0.01335,-16.08255
0.013400000000000002,-13.6458
0.013450000000000004,-16.08255
0.013499999999999998,-16.08255
0.01355,-13.6458
0.013600000000000001,-13.6458
0.013650000000000002,-16.08255
0.013700000000000004,-13.15845
0.013749999999999998,-16.08255
0.0138,-15.5952
0.013850000000000001,-13.6458
0.013900000000000003,-14.13315
0.013949999999999997,-16.08255
0.013999999999999999,-15.5952
0.01405,-13.6458
0.014100000000000001,-15.5952
0.014150000000000003,-13.15845
0.014199999999999997,-15.107850000000001
0.014249999999999999,-13.15845
0.0143,-13.15845
0.014350000000000002,-15.107850000000001
0.014400000000000003,-14.6205
0.014449999999999998,-12.671100000000001
0.014499999999999999,-12.671100000000001
0.01455,-14.6205
0.014600000000000002,-14.13315
0.014650000000000003,-12.18375
0.014699999999999998,-14.13315
0.01475,-12.18375
0.0148,-12.18375
0.014850000000000002,-14.13315
0.014900000000000004,-14.13315
0.014949999999999998,-11.6964
0.015,-13.6458
0.015050000000000001,-11.6964
0.015100000000000002,-11.6964
0.015150000000000004,-13.6458
0.015199999999999998,-13.15845
0.01525,-11.20905
0.015300000000000001,-13.15845
0.015350000000000003,-11.20905
0.015400000000000004,-12.671100000000001
0.015449999999999998,-10.7217
0.0155,-12.671100000000001
0.015550000000000001,-10.234350000000001
0.015600000000000003,-12.18375
0.015649999999999997,-10.234350000000001
0.0157,-11.6964
0.01575,-10.234350000000001
0.0158,-11.6964
0.015850000000000003,-9.747
0.015899999999999997,-11.6964
0.01595,-9.747
0.016,-9.747
0.016050000000000002,-11.20905
0.016100000000000003,-11.20905
0.016149999999999998,-9.25965
0.0162,-11.20905
0.01625,-9.25965
0.016300000000000002,-9.25965
0.016350000000000003,-11.20905
0.016399999999999998,-11.20905
0.01645,-8.7723
0.0165,-10.7217
0.016550000000000002,-8.28495
0.016600000000000004,-10.234350000000001
0.016649999999999998,-8.28495
0.0167,-10.234350000000001
0.01675,-8.28495
0.016800000000000002,-8.28495
0.016850000000000004,-10.234350000000001
0.0169,-7.7976
0.01695,-10.234350000000001
0.017,-9.747
0.017050000000000003,-7.7976
0.017100000000000004,-9.747
0.01715,-7.7976
0.0172,-9.747
0.01725,-7.7976
0.017300000000000003,-9.747
0.017349999999999997,-7.31025
0.0174,-9.25965
0.01745,-7.31025
0.0175,-9.25965
0.017550000000000003,-6.8229
0.017599999999999998,-8.7723
0.01765,-6.3355500000000005
0.0177,-8.28495
0.017750000000000002,-6.3355500000000005
0.017800000000000003,-5.8482
0.017849999999999998,-8.28495
0.0179,-7.7976
0.01795,-5.8482
0.018000000000000002,-7.31025
0.018050000000000004,-5.36085
0.018099999999999998,-5.36085
0.01815,-7.31025
0.0182,-7.31025
0.018250000000000002,-5.36085
0.018300000000000004,-5.36085
0.018349999999999998,-7.31025
0.0184,-5.36085
0.01845,-7.7976
0.018500000000000003,-7.31025
0.018550000000000004,-5.36085
0.0186,-7.31025
0.01865,-4.8735
0.0187,-6.8229
0.018750000000000003,-4.8735
0.018799999999999997,-6.8229
0.01885,-3.8988
0.0189,-6.3355500000000005
0.01895,-3.8988
0.019000000000000003,-5.8482
0.019049999999999997,-3.8988
0.0191,-5.8482
0.01915,-3.41145
0.019200000000000002,-5.36085
0.019250000000000003,-3.41145
0.019299999999999998,-5.36085
0.01935,-3.41145
0.0194,-5.36085
0.019450000000000002,-2.9241
0.019500000000000003,-4.8735
0.019549999999999998,-2.9241
0.0196,-4.8735
0.01965,-2.43675
0.019700000000000002,-4.38615
0.019750000000000004,-2.43675
0.019799999999999998,-4.38615
0.01985,-1.9494
0.0199,-9.25965
0.019950000000000002,-0.48735
0.020000000000000004,-3.8988
0.02005,-1.9494
0.0201,-3.41145
0.02015,-0.9747
0.020200000000000003,-2.9241
0.020250000000000004,0.0
0.0203,-1.9494
0.02035,1.46205
0.0204,0.0
0.020450000000000003,3.41145
0.020499999999999997,2.43675
0.02055,6.8229
0.0206,5.36085
0.02065,11.20905
0.020700000000000003,9.25965
0.020749999999999998,15.107850000000001
0.0208,13.6458
0.02085,18.031950000000002
0.020900000000000002,16.08255
0.020950000000000003,18.031950000000002
0.020999999999999998,16.08255
0.02105,18.031950000000002
0.0211,16.08255
0.021150000000000002,18.5193
0.021200000000000004,16.08255
0.021249999999999998,18.5193
0.0213,18.5193
0.02135,16.5699
0.021400000000000002,18.5193
0.021450000000000004,16.08255
0.0215,16.08255
0.02155,18.5193
0.0216,17.5446
0.021650000000000003,15.5952
0.021700000000000004,17.5446
0.02175,15.5952
0.0218,17.5446
0.02185,15.107850000000001
0.021900000000000003,15.107850000000001
0.021950000000000004,17.5446
0.022,15.107850000000001
0.02205,17.05725
0.0221,15.107850000000001
0.022150000000000003,17.05725
0.022199999999999998,15.107850000000001
0.02225,17.05725
0.0223,17.05725
0.022350000000000002,14.6205
0.022400000000000003,16.5699
0.022449999999999998,14.13315
0.0225,16.5699
0.02255,14.6205
0.022600000000000002,16.5699
0.022650000000000003,14.6205
0.022699999999999998,14.6205
0.02275,16.5699
0.0228,14.6205
0.022850000000000002,16.5699
0.022900000000000004,16.5699
0.022949999999999998,14.13315
0.023,16.08255
0.02305,14.13315
0.023100000000000002,16.08255
0.023150000000000004,13.6458
0.0232,16.08255
0.02325,13.6458
0.0233,15.5952
0.023350000000000003,13.6458
0.023400000000000004,13.6458
0.02345,15.5952
0.0235,13.6458
0.02355,15.5952
0.023600000000000003,15.5952
0.023650000000000004,13.15845
0.0237,13.15845
0.02375,15.5952
0.0238,13.6458
0.023850000000000003,15.5952
0.023899999999999998,13.6458
0.02395,15.5952
0.024,15.5952
0.024050000000000002,13.15845
0.024100000000000003,13.15845
0.024149999999999998,15.5952
0.0242,15.107850000000001
0.02425,12.671100000000001
0.024300000000000002,14.6205
0.024350000000000004,12.671100000000001
0.024399999999999998,14.6205
0.02445,12.18375
0.0245,14.13315
0.024550000000000002,12.18375
0.024600000000000004,14.13315
0.02465,11.6964
0.0247,13.6458
0.02475,11.6964
0.024800000000000003,13.6458
0.024850000000000004,11.20905
0.0249,11.6964
0.02495,12.18375
